framboise 2 fluo 488 at 50%
Integration time [ms]: 100,000
Averaging Nr. [scans]: 5
Smoothing Nr. [pixels]: 2
Data measured with spectrometer [name]: 1004063U1
Wave   ;Sample   ;Dark     ;Reference;Scope Corrected for Dark
[nm]   ;[counts] ;[counts] ;[counts] 

 250,00;  -38,077;    1,155;  -14,815;-39,23260
 251,00;  -21,931;   -5,473;   -9,452;-16,45772
 252,00;   -9,196;   -5,700;   -1,523;-3,49538
 253,00;   -0,867;  -11,454;   -3,808;10,58759
 254,00;  -19,343;   -8,924;  -13,400;-10,41832
 255,00;   -9,646;   -0,310;  -20,827;-9,33619
 256,00;  -12,140;    3,751;  -26,237;-15,89059
 257,00;    9,951;    3,313;  -19,293; 6,63767
 258,00;  -15,024;   -6,903;  -19,170;-8,12165
 259,00;    0,780;   -7,558;  -10,187; 8,33730
 260,00;   10,799;   -7,865;  -11,272;18,66384
 261,00;   17,437;   -5,514;  -10,385;22,95081
 262,00;    8,408;  -10,181;  -14,824;18,58911
 263,00;    2,129;  -11,087;  -19,322;13,21599
 264,00;   18,077;  -12,614;  -13,619;30,69034
 265,00;    6,245;   -8,991;  -17,132;15,23580
 266,00;   -7,447;   -2,911;  -17,873;-4,53557
 267,00;  -15,552;    3,115;  -12,222;-18,66697
 268,00;    3,179;    8,112;   -2,189;-4,93324
 269,00;   15,547;    1,600;    2,279;13,94637
 270,00;   23,935;   -5,748;   -8,267;29,68306
 271,00;    9,727;   -9,632;   -3,739;19,35880
 272,00;   -7,877;   -8,729;   -6,968; 0,85168
 273,00;  -28,748;   -5,842;   -9,497;-22,90646
 274,00;  -38,902;  -10,339;  -19,390;-28,56246
 275,00;  -49,660;  -11,921;  -21,042;-37,73953
 276,00;  -48,410;   -9,941;  -22,188;-38,46933
 277,00;  -44,829;   -4,913;  -23,450;-39,91620
 278,00;   -5,412;   -0,596;  -14,302;-4,81616
 279,00;    5,149;   -2,004;   -6,572; 7,15374
 280,00;   61,304;   -3,104;    4,948;64,40772
 281,00;   37,421;   -4,370;    2,895;41,79078
 282,00;   31,491;   -5,328;   -0,355;36,81885
 283,00;    1,364;   -8,331;   -4,461; 9,69556
 284,00;    4,939;   -6,944;   -8,748;11,88262
 285,00;   -6,838;   -6,270;   -5,989;-0,56841
 286,00;  -34,786;   -2,924;  -10,901;-31,86212
 287,00;  -50,664;   -9,454;  -12,181;-41,20958
 288,00;  -15,202;   -6,622;   -9,738;-8,57999
 289,00;    0,302;   -9,579;   -3,940; 9,88121
 290,00;    8,126;   -7,330;   -2,143;15,45597
 291,00;  -13,788;  -13,118;   -5,737;-0,67027
 292,00;  -24,729;  -15,791;  -15,787;-8,93818
 293,00;  -26,318;   -9,037;  -17,460;-17,28153
 294,00;   -9,712;   -3,295;  -18,451;-6,41681
 295,00;    4,863;    3,589;  -15,185; 1,27381
 296,00;    9,194;   -4,521;  -19,892;13,71416
 297,00;  -24,120;  -11,259;  -19,951;-12,86073
 298,00;   -7,183;  -11,440;  -12,165; 4,25746
 299,00;  -10,819;   -9,975;    0,584;-0,84453
 300,00;   -0,225;  -10,197;   -7,346; 9,97172
 301,00;  -31,129;  -10,798;  -17,678;-20,33145
 302,00;  -22,139;   -8,014;  -17,431;-14,12456
 303,00;  -10,837;   -8,839;  -11,363;-1,99799
 304,00;  -14,359;   -5,897;   -8,061;-8,46199
 305,00;  -33,571;   -4,705;  -15,981;-28,86655
 306,00;  -44,959;    1,483;  -14,081;-46,44224
 307,00;  -47,314;   -7,773;  -18,158;-39,54125
 308,00;  -43,173;   -7,441;  -12,057;-35,73176
 309,00;  -25,417;   -2,434;  -10,575;-22,98349
 310,00;  -28,520;    3,502;  -20,226;-32,02208
 311,00;  -17,303;   -3,304;  -27,326;-13,99855
 312,00;  -22,287;  -14,156;  -32,254;-8,13144
 313,00;    4,382;  -13,360;  -22,362;17,74241
 314,00;   -5,818;   -6,873;  -21,526; 1,05549
 315,00;  -21,292;    1,059;  -22,729;-22,35084
 316,00;  -26,266;   -8,227;  -19,441;-18,03969
 317,00;  -10,403;   -8,990;  -19,261;-1,41312
 318,00;  -11,487;   -5,607;  -17,389;-5,87989
 319,00;  -17,044;    3,680;  -18,677;-20,72399
 320,00;  -31,783;    1,500;  -20,854;-33,28296
 321,00;  -20,318;   -5,713;  -26,192;-14,60501
 322,00;    3,356;   -5,736;  -20,672; 9,09239
 323,00;   19,421;  -11,599;  -17,118;31,02007
 324,00;    7,065;  -16,468;   -9,485;23,53219
 325,00;  -29,010;  -18,385;  -18,318;-10,62501
 326,00;  -27,720;  -12,347;  -15,025;-15,37266
 327,00;   -2,930;  -10,184;  -13,809; 7,25437
 328,00;   19,110;   -1,331;   -3,989;20,44043
 329,00;   43,429;    3,862;    2,247;39,56678
 330,00;   37,198;    3,735;   -3,335;33,46305
 331,00;   27,183;  -11,585;   -6,870;38,76875
 332,00;    3,074;  -10,593;  -13,873;13,66662
 333,00;    6,576;   -8,306;   -5,309;14,88173
 334,00;   -5,173;   -8,754;   -5,620; 3,58101
 335,00;  -31,300;  -15,871;   -6,273;-15,42963
 336,00;  -38,025;  -11,078;   -9,221;-26,94668
 337,00;  -23,601;    2,241;  -14,390;-25,84267
 338,00;   17,676;   -0,313;  -14,666;17,98876
 339,00;   11,273;   -3,028;  -10,565;14,30116
 340,00;  -13,550;  -11,988;  -10,152;-1,56203
 341,00;  -49,748;   -9,937;  -13,666;-39,81157
 342,00;  -49,980;  -11,980;  -19,369;-38,00035
 343,00;   -4,764;   -9,535;  -10,712; 4,77033
 344,00;   14,496;   -6,806;   -2,466;21,30118
 345,00;   18,154;   -3,603;   -6,583;21,75774
 346,00;   -4,659;   -3,771;  -15,314;-0,88856
 347,00;  -30,292;   -3,114;  -25,429;-27,17768
 348,00;  -32,836;   -7,034;  -18,013;-25,80201
 349,00;  -51,365;   -7,939;  -20,159;-43,42666
 350,00;  -40,229;  -11,944;  -23,725;-28,28589
 351,00;  -58,376;  -12,778;  -40,150;-45,59801
 352,00;  -49,667;  -17,929;  -34,647;-31,73760
 353,00;  -49,934;  -21,000;  -26,822;-28,93367
 354,00;  -29,815;  -17,882;  -15,722;-11,93319
 355,00;   -3,724;  -17,502;  -22,018;13,77837
 356,00;    3,561;  -12,858;  -20,459;16,41867
 357,00;   -5,315;  -17,033;  -21,091;11,71814
 358,00;   -7,786;  -11,324;  -20,098; 3,53768
 359,00;   -3,929;  -13,284;  -18,496; 9,35526
 360,00;   -8,114;  -15,938;  -19,423; 7,82476
 361,00;  -24,731;  -11,722;  -16,737;-13,00987
 362,00;  -23,217;  -11,680;  -14,790;-11,53678
 363,00;  -10,905;    2,713;  -24,923;-13,61783
 364,00;  -10,403;   -1,324;  -26,459;-9,07889
 365,00;   -6,430;   -2,771;  -30,805;-3,65936
 366,00;   -4,823;  -12,064;  -21,794; 7,24078
 367,00;   -6,517;  -13,029;  -20,677; 6,51227
 368,00;   -6,065;  -12,428;  -16,094; 6,36324
 369,00;  -10,665;   -7,289;  -22,281;-3,37597
 370,00;  -10,082;  -11,712;  -17,523; 1,62995
 371,00;    0,582;    0,734;  -17,560;-0,15247
 372,00;   29,639;   -3,279;   -2,812;32,91830
 373,00;   10,093;    7,630;  -12,802; 2,46309
 374,00;  -15,550;   -9,318;  -22,184;-6,23187
 375,00;  -49,956;  -13,775;  -30,800;-36,18076
 376,00;  -39,047;  -19,794;  -21,135;-19,25265
 377,00;  -34,378;  -13,984;  -16,352;-20,39427
 378,00;  -23,667;  -12,531;  -15,920;-11,13595
 379,00;  -13,385;  -13,224;  -21,607;-0,16046
 380,00;  -19,509;  -14,498;  -37,336;-5,01167
 381,00;  -13,128;  -10,547;  -33,302;-2,58037
 382,00;   -4,421;  -11,818;  -28,939; 7,39690
 383,00;   28,376;  -12,851;  -21,289;41,22725
 384,00;   25,270;  -17,913;  -23,520;43,18349
 385,00;    0,509;  -25,759;  -29,131;26,26793
 386,00;  -12,688;  -23,939;  -21,810;11,25121
 387,00;    5,678;  -24,727;  -22,206;30,40478
 388,00;   24,731;  -15,806;  -19,719;40,53773
 389,00;   45,578;  -17,018;  -13,904;62,59531
 390,00;   32,797;  -16,035;  -13,287;48,83242
 391,00;   26,177;  -21,444;  -12,772;47,62077
 392,00;   -2,272;  -23,034;  -18,037;20,76170
 393,00;  -26,202;  -10,486;  -24,807;-15,71580
 394,00;  -29,358;   -6,991;  -26,296;-22,36678
 395,00;  -31,057;   -9,758;  -30,243;-21,29889
 396,00;  -30,032;  -20,395;  -24,304;-9,63673
 397,00;  -18,096;  -14,196;  -27,655;-3,89994
 398,00;  -13,513;   -2,876;  -27,860;-10,63628
 399,00;  -18,326;   -8,197;  -29,850;-10,12924
 400,00;  -33,608;  -18,123;  -27,035;-15,48500
 401,00;  -45,392;  -17,863;  -29,752;-27,52838
 402,00;  -42,086;  -14,312;  -31,463;-27,77364
 403,00;  -33,887;  -10,875;  -38,002;-23,01154
 404,00;  -30,271;  -17,370;  -38,231;-12,90082
 405,00;  -29,739;  -13,781;  -27,888;-15,95813
 406,00;   -2,138;  -13,139;  -16,322;11,00102
 407,00;   24,369;  -15,244;  -10,304;39,61276
 408,00;   62,228;  -20,907;  -12,194;83,13566
 409,00;   17,571;  -18,698;  -12,855;36,26941
 410,00;   -4,712;  -13,147;  -15,537; 8,43449
 411,00;  -45,042;  -12,036;  -17,763;-33,00557
 412,00;  -20,152;  -11,949;  -26,612;-8,20274
 413,00;  -19,069;  -15,068;  -37,148;-4,00114
 414,00;   -7,310;   -9,402;  -42,940; 2,09221
 415,00;  -26,643;  -20,359;  -42,179;-6,28445
 416,00;  -28,657;  -21,642;  -31,463;-7,01542
 417,00;  -26,798;  -26,661;  -31,487;-0,13717
 418,00;  -12,817;  -19,993;  -31,707; 7,17531
 419,00;  -19,652;  -17,845;  -44,653;-1,80676
 420,00;  -26,354;  -15,310;  -47,591;-11,04333
 421,00;  -42,849;  -19,848;  -45,147;-23,00134
 422,00;  -22,673;  -22,151;  -28,924;-0,52216
 423,00;    5,641;  -19,568;  -23,481;25,20913
 424,00;   11,232;   -9,765;  -24,310;20,99616
 425,00;    1,521;   -9,493;  -37,367;11,01393
 426,00;    6,230;  -16,833;  -31,366;23,06340
 427,00;    0,569;  -20,291;  -34,823;20,86002
 428,00;  -14,477;  -22,924;  -24,701; 8,44656
 429,00;  -34,539;  -16,661;  -28,804;-17,87790
 430,00;  -10,824;  -14,884;  -25,642; 4,06070
 431,00;    1,585;  -15,269;  -25,095;16,85387
 432,00;   -8,970;  -10,952;  -27,803; 1,98286
 433,00;  -23,300;   -7,955;  -27,615;-15,34500
 434,00;  -11,128;    0,281;  -32,050;-11,40969
 435,00;  -14,552;   -5,236;  -37,776;-9,31574
 436,00;  -32,274;   -8,633;  -38,346;-23,64083
 437,00;  -36,267;  -12,242;  -37,834;-24,02469
 438,00;  -17,147;  -16,179;  -29,290;-0,96755
 439,00;   11,161;  -21,581;  -28,734;32,74202
 440,00;   15,177;  -18,060;  -24,037;33,23742
 441,00;   -6,798;  -13,147;  -19,977; 6,34914
 442,00;  -14,581;   -8,630;  -17,678;-5,95060
 443,00;  -32,503;  -14,924;  -23,789;-17,57911
 444,00;  -35,606;  -16,124;  -35,406;-19,48157
 445,00;  -32,422;   -8,882;  -33,704;-23,53939
 446,00;  -12,870;   -7,814;  -28,328;-5,05584
 447,00;   -1,093;  -13,308;  -17,494;12,21478
 448,00;    4,094;  -20,576;  -13,372;24,66935
 449,00;   -3,979;  -23,015;   -9,091;19,03596
 450,00;   -3,540;  -23,576;  -11,964;20,03599
 451,00;  -11,986;  -16,373;  -18,700; 4,38675
 452,00;  -13,391;  -12,049;  -29,794;-1,34223
 453,00;   -9,543;   -9,787;  -30,553; 0,24389
 454,00;    0,765;  -22,795;  -31,737;23,56001
 455,00;   13,046;  -20,048;  -34,977;33,09441
 456,00;   12,131;  -15,302;  -37,416;27,43265
 457,00;   10,115;   -4,407;  -36,665;14,52175
 458,00;   -2,869;   -8,767;  -30,647; 5,89816
 459,00;   24,580;  -10,933;  -20,407;35,51330
 460,00;   34,417;   -8,911;  -11,473;43,32798
 461,00;   36,678;  -10,144;  -11,305;46,82138
 462,00;    8,820;  -11,652;  -12,471;20,47261
 463,00;  -11,159;  -11,432;  -20,758; 0,27299
 464,00;    7,059;   -7,257;  -21,599;14,31617
 465,00;   -9,999;   -9,694;  -31,040;-0,30508
 466,00;  -11,994;  -19,821;  -29,558; 7,82627
 467,00;   -9,884;  -23,510;  -26,898;13,62634
 468,00;   19,075;  -19,447;  -24,479;38,52229
 469,00;   45,605;  -13,178;  -21,023;58,78315
 470,00;   38,852;   -8,333;  -22,238;47,18480
 471,00;   54,387;   -3,437;  -19,761;57,82376
 472,00;   54,565;   -7,743;  -26,241;62,30827
 473,00;   59,025;   -7,953;  -32,835;66,97843
 474,00;   46,289;  -13,393;  -38,028;59,68218
 475,00;   39,870;  -14,886;  -34,016;54,75529
 476,00;   52,998;  -19,406;  -26,015;72,40462
 477,00;   59,168;  -21,311;  -29,041;80,47894
 478,00;   67,964;  -15,324;  -29,100;83,28801
 479,00;   71,448;  -16,211;  -29,562;87,65984
 480,00;   87,896;  -22,207;  -22,392;110,10258
 481,00;  106,731;  -25,126;  -23,343;131,85704
 482,00;  110,692;  -20,717;  -27,117;131,40907
 483,00;  108,086;  -17,488;  -25,961;125,57395
 484,00;  131,351;  -11,993;  -27,052;143,34354
 485,00;  182,894;  -22,303;  -27,255;205,19677
 486,00;  220,346;  -27,180;  -26,559;247,52598
 487,00;  221,467;  -37,822;  -33,029;259,28918
 488,00;  235,393;  -34,618;  -33,598;270,01149
 489,00;  259,858;  -34,996;  -37,783;294,85412
 490,00;  307,274;  -27,264;  -26,863;334,53767
 491,00;  337,305;  -21,494;  -25,278;358,79880
 492,00;  479,120;  -24,772;  -27,408;503,89148
 493,00; 1367,159;  -30,598;  -28,904;1397,75763
 494,00; 4243,689;  -35,718;  -25,217;4279,40706
 495,00; 9661,391;  -32,001;  -23,092;9693,39187
 496,00;16706,538;  -33,068;  -22,793;16739,60608
 497,00;23567,101;  -30,603;  -15,556;23597,70360
 498,00;28733,918;  -28,829;  -15,644;28762,74698
 499,00;31221,472;  -23,387;  -14,816;31244,85844
 500,00;31868,595;  -21,371;  -26,494;31889,96605
 501,00;31637,336;  -18,739;  -20,907;31656,07510
 502,00;31429,621;  -19,955;  -17,116;31449,57672
 503,00;31145,369;  -20,557;  -11,601;31165,92660
 504,00;30821,795;  -16,739;  -19,453;30838,53382
 505,00;30449,577;  -24,247;  -21,698;30473,82391
 506,00;30034,525;  -17,620;  -26,632;30052,14536
 507,00;29743,978;  -20,346;  -31,257;29764,32457
 508,00;29446,564;  -17,166;  -32,620;29463,72993
 509,00;29312,625;  -18,723;  -34,251;29331,34800
 510,00;29236,374;  -18,201;  -31,592;29254,57553
 511,00;29305,589;  -21,084;  -28,179;29326,67294
 512,00;29522,745;  -31,059;  -17,131;29553,80383
 513,00;29718,336;  -34,210;  -19,419;29752,54527
 514,00;30007,345;  -30,643;  -26,925;30037,98777
 515,00;30275,592;  -31,730;  -34,492;30307,32191
 516,00;30716,201;  -25,141;  -30,949;30741,34209
 517,00;30981,454;  -30,731;  -24,355;31012,18533
 518,00;31137,792;  -21,944;  -23,836;31159,73574
 519,00;31385,114;  -25,184;  -10,596;31410,29801
 520,00;31712,692;  -15,022;  -10,028;31727,71384
 521,00;32124,503;  -13,249;  -10,169;32137,75113
 522,00;32431,260;  -12,652;  -20,675;32443,91271
 523,00;32913,298;  -18,943;  -27,437;32932,24093
 524,00;33487,466;  -24,872;  -28,796;33512,33816
 525,00;34059,098;  -31,059;  -32,873;34090,15776
 526,00;34590,252;  -32,872;  -30,650;34623,12351
 527,00;35153,686;  -29,846;  -28,412;35183,53251
 528,00;35795,848;  -25,315;  -19,352;35821,16315
 529,00;36298,997;  -22,716;  -20,135;36321,71233
 530,00;36638,505;  -25,120;  -18,559;36663,62435
 531,00;36969,475;  -24,443;  -32,141;36993,91813
 532,00;37399,870;  -25,012;  -40,396;37424,88232
 533,00;37683,209;  -27,081;  -48,043;37710,29026
 534,00;37934,469;  -27,938;  -35,445;37962,40695
 535,00;38074,378;  -34,884;  -23,446;38109,26155
 536,00;38243,499;  -33,331;  -16,155;38276,82984
 537,00;38390,807;  -34,704;  -18,047;38425,51107
 538,00;38483,209;  -25,192;  -16,815;38508,40107
 539,00;38589,517;  -22,637;  -16,351;38612,15375
 540,00;38688,911;  -17,413;  -17,930;38706,32474
 541,00;38917,875;  -16,309;  -20,427;38934,18317
 542,00;39142,955;  -16,828;  -25,030;39159,78328
 543,00;39352,704;  -17,345;  -18,501;39370,04969
 544,00;39679,516;  -19,116;   -8,573;39698,63249
 545,00;40028,783;  -21,713;   -4,394;40050,49572
 546,00;40589,047;  -25,908;    1,646;40614,95499
 547,00;41017,575;  -33,064;   -9,113;41050,63965
 548,00;41594,856;  -34,016;  -13,191;41628,87263
 549,00;42046,498;  -27,323;  -19,690;42073,82127
 550,00;42477,431;  -21,582;  -15,983;42499,01208
 551,00;42867,292;  -22,118;  -21,402;42889,40999
 552,00;43159,213;  -25,963;  -24,222;43185,17563
 553,00;43434,989;  -27,737;  -24,279;43462,72622
 554,00;43703,045;  -21,963;  -11,921;43725,00832
 555,00;43992,645;  -16,798;  -11,135;44009,44257
 556,00;44275,992;   -9,075;   -8,362;44285,06740
 557,00;44492,144;  -15,314;  -10,121;44507,45779
 558,00;44751,770;  -14,559;  -15,624;44766,32906
 559,00;44990,600;  -17,920;  -12,466;45008,52027
 560,00;45072,291;  -17,173;  -16,951;45089,46488
 561,00;45140,026;  -17,992;  -12,925;45158,01859
 562,00;45173,698;  -23,499;  -14,288;45197,19735
 563,00;45254,687;  -26,252;   -6,858;45280,93898
 564,00;45245,200;  -30,040;  -10,942;45275,23953
 565,00;45160,987;  -22,800;   -6,310;45183,78640
 566,00;44983,370;  -17,687;   -6,585;45001,05682
 567,00;44888,819;  -18,277;   -4,009;44907,09612
 568,00;44789,605;  -12,249;   -3,936;44801,85365
 569,00;44732,991;  -19,029;    0,719;44752,02046
 570,00;44511,238;  -21,924;    0,288;44533,16180
 571,00;44285,719;  -23,973;   -8,235;44309,69193
 572,00;44047,460;  -20,213;  -19,609;44067,67275
 573,00;43844,859;  -15,965;  -19,317;43860,82405
 574,00;43559,399;  -25,109;  -16,481;43584,50805
 575,00;43292,152;  -28,104;   -3,970;43320,25633
 576,00;42966,990;  -32,946;   -1,684;42999,93619
 577,00;42566,707;  -26,641;   -1,515;42593,34802
 578,00;42209,612;  -21,822;    2,950;42231,43384
 579,00;41759,795;  -17,228;    5,394;41777,02388
 580,00;41309,402;  -16,543;   12,207;41325,94543
 581,00;40820,387;  -21,190;   10,444;40841,57741
 582,00;40470,189;  -19,772;   14,348;40489,96058
 583,00;40166,864;  -18,577;   15,334;40185,44113
 584,00;39875,515;  -14,701;   19,641;39890,21641
 585,00;39601,516;  -14,234;   18,404;39615,75094
 586,00;39190,953;  -18,663;    6,694;39209,61548
 587,00;38583,329;  -28,149;   -2,098;38611,47833
 588,00;37861,789;  -25,325;   -0,305;37887,11395
 589,00;37140,549;  -21,504;   -0,399;37162,05334
 590,00;36500,143;  -15,034;    2,933;36515,17718
 591,00;35853,669;  -20,482;   -4,874;35874,15093
 592,00;35238,764;  -27,109;   -8,695;35265,87288
 593,00;34577,262;  -17,586;   -6,696;34594,84846
 594,00;33916,337;  -16,428;   -0,199;33932,76557
 595,00;33306,366;  -15,538;    9,574;33321,90400
 596,00;32665,565;  -26,490;    8,849;32692,05555
 597,00;32041,201;  -27,530;    7,387;32068,73091
 598,00;31352,264;  -21,848;    9,257;31374,11232
 599,00;30743,399;  -18,162;   14,233;30761,56122
 600,00;30085,293;  -17,893;   13,043;30103,18679
 601,00;29441,213;  -19,228;    9,065;29460,44021
 602,00;28722,018;  -15,728;    7,823;28737,74666
 603,00;27944,409;  -18,193;    5,665;27962,60206
 604,00;27047,653;  -24,223;    2,251;27071,87552
 605,00;26141,924;  -32,867;   -1,549;26174,79161
 606,00;25246,574;  -34,645;   -0,348;25281,21916
 607,00;24406,895;  -36,301;    3,011;24443,19599
 608,00;24107,078;  -31,895;   -8,995;24138,97297
 609,00;24335,622;  -31,068;   -7,095;24366,69051
 610,00;24722,071;  -28,437;   -5,247;24750,50826
 611,00;24740,785;  -30,147;    8,913;24770,93168
 612,00;24338,063;  -28,904;    7,604;24366,96729
 613,00;23875,435;  -37,836;    7,936;23913,27124
 614,00;23357,123;  -39,127;   -0,427;23396,25049
 615,00;22759,324;  -39,651;    4,899;22798,97564
 616,00;22184,360;  -28,930;    2,344;22213,28951
 617,00;21583,087;  -26,922;    6,325;21610,00876
 618,00;21097,377;  -23,931;    0,829;21121,30730
 619,00;20533,424;  -29,411;   -4,973;20562,83435
 620,00;20010,151;  -23,957;   -8,072;20034,10830
 621,00;19453,127;  -27,703;  -11,634;19480,83007
 622,00;18999,968;  -21,866;   -4,973;19021,83422
 623,00;18569,267;  -28,609;    2,607;18597,87544
 624,00;18143,258;  -27,618;    4,565;18170,87529
 625,00;17721,692;  -28,638;    3,823;17750,32950
 626,00;17327,387;  -24,481;   -5,859;17351,86863
 627,00;17008,219;  -24,481;  -11,354;17032,69939
 628,00;16679,160;  -29,029;  -13,936;16708,18908
 629,00;16405,669;  -36,532;  -10,432;16442,20127
 630,00;16110,903;  -34,349;   -7,558;16145,25176
 631,00;15856,918;  -32,674;   -7,463;15889,59122
 632,00;15586,641;  -22,678;   -2,780;15609,31810
 633,00;15321,181;  -23,265;    4,544;15344,44594
 634,00;15022,509;  -22,668;    0,875;15045,17705
 635,00;14760,150;  -24,118;   -7,479;14784,26815
 636,00;14511,753;  -25,942;   -9,788;14537,69464
 637,00;14354,308;  -26,658;   -2,145;14380,96541
 638,00;14133,650;  -25,838;    3,537;14159,48812
 639,00;13941,665;  -22,706;    7,676;13964,37146
 640,00;13679,924;  -17,699;   12,401;13697,62302
 641,00;13498,374;  -11,310;   15,887;13509,68407
 642,00;13323,168;  -20,899;   21,689;13344,06683
 643,00;13112,907;  -25,275;   16,667;13138,18229
 644,00;12931,699;  -30,274;   14,225;12961,97373
 645,00;12672,617;  -27,887;    2,362;12700,50380
 646,00;12482,677;  -30,389;   -2,754;12513,06579
 647,00;12271,033;  -34,464;   -5,112;12305,49713
 648,00;12113,999;  -34,941;    1,819;12148,94021
 649,00;11961,837;  -30,370;    3,056;11992,20699
 650,00;11709,749;  -28,964;    0,297;11738,71318
 651,00;11537,681;  -23,219;   -1,386;11560,90019
 652,00;11232,514;  -22,864;    5,521;11255,37798
 653,00;10870,919;  -27,598;    9,386;10898,51648
 654,00;10515,519;  -30,489;    7,753;10546,00767
 655,00;10266,431;  -35,581;    6,548;10302,01277
 656,00;10092,774;  -25,848;   11,727;10118,62208
 657,00; 9895,392;  -27,878;   20,856;9923,26998
 658,00; 9727,328;  -27,282;   22,540;9754,60997
 659,00; 9584,458;  -34,612;   11,307;9619,07016
 660,00; 9379,086;  -32,647;    4,786;9411,73248
 661,00; 9175,749;  -29,474;   10,481;9205,22328
 662,00; 9003,679;  -26,237;    7,430;9029,91656
 663,00; 8854,632;  -25,109;    5,564;8879,74116
 664,00; 8729,723;  -31,344;   -2,375;8761,06638
 665,00; 8547,250;  -29,698;   -2,960;8576,94762
 666,00; 8452,785;  -28,625;   -0,111;8481,40966
 667,00; 8320,844;  -27,534;   -7,273;8348,37757
 668,00; 8210,327;  -35,782;   -9,491;8246,10897
 669,00; 8075,881;  -33,250;  -14,983;8109,13045
 670,00; 7979,019;  -23,855;   -3,762;8002,87463
 671,00; 7882,855;  -22,098;    3,664;7904,95293
 672,00; 7760,559;  -36,457;    5,772;7797,01583
 673,00; 7684,760;  -38,979;    1,781;7723,73959
 674,00; 7583,585;  -35,758;    8,042;7619,34243
 675,00; 7438,961;  -26,567;   11,306;7465,52837
 676,00; 7330,676;  -32,208;    9,667;7362,88478
 677,00; 7224,756;  -30,525;    3,762;7255,28158
 678,00; 7109,933;  -28,475;    4,691;7138,40842
 679,00; 6959,573;  -33,061;    7,793;6992,63398
 680,00; 6889,258;  -27,904;    8,266;6917,16261
 681,00; 6834,824;  -24,716;    7,260;6859,54050
 682,00; 6782,569;  -16,334;    8,336;6798,90345
 683,00; 6699,263;  -30,108;    4,515;6729,37132
 684,00; 6668,598;  -40,995;    3,276;6709,59278
 685,00; 6608,741;  -47,015;    1,076;6655,75580
 686,00; 6512,015;  -40,952;   -3,021;6552,96699
 687,00; 6404,322;  -36,169;   -9,575;6440,49064
 688,00; 6265,101;  -42,173;   -4,505;6307,27360
 689,00; 6132,064;  -45,597;    5,246;6177,66157
 690,00; 5997,728;  -48,192;   10,426;6045,92017
 691,00; 5905,293;  -39,150;    4,299;5944,44299
 692,00; 5791,641;  -32,662;    0,205;5824,30330
 693,00; 5671,881;  -27,778;    0,746;5699,65915
 694,00; 5533,936;  -29,418;    9,144;5563,35320
 695,00; 5390,968;  -34,283;   10,368;5425,25146
 696,00; 5237,500;  -34,675;   -1,096;5272,17503
 697,00; 5109,457;  -29,420;  -12,981;5138,87674
 698,00; 5039,964;  -23,251;   -9,045;5063,21550
 699,00; 4980,174;  -24,431;   -3,162;5004,60525
 700,00; 4869,295;  -29,689;    1,772;4898,98354
 701,00; 4700,783;  -33,351;   -2,687;4734,13430
 702,00; 4543,390;  -43,992;   -9,369;4587,38150
 703,00; 4429,085;  -43,290;  -11,578;4472,37532
 704,00; 4365,971;  -41,705;   -5,942;4407,67617
 705,00; 4246,842;  -28,595;    2,665;4275,43742
 706,00; 4186,933;  -20,882;    2,890;4207,81447
 707,00; 4074,754;  -18,217;    8,993;4092,97022
 708,00; 3985,594;  -29,198;    6,170;4014,79227
 709,00; 3839,463;  -35,703;   -4,346;3875,16676
 710,00; 3725,193;  -44,801;   -5,799;3769,99406
 711,00; 3625,537;  -39,029;  -13,012;3664,56584
 712,00; 3534,508;  -36,706;  -12,517;3571,21336
 713,00; 3474,306;  -22,373;  -17,926;3496,67887
 714,00; 3388,823;  -27,790;  -11,129;3416,61371
 715,00; 3359,278;  -34,720;   -6,039;3393,99833
 716,00; 3225,379;  -42,314;  -12,153;3267,69321
 717,00; 3125,941;  -41,221;  -15,469;3167,16186
 718,00; 2990,199;  -34,849;  -18,511;3025,04727
 719,00; 2887,175;  -30,938;  -15,198;2918,11338
 720,00; 2796,497;  -24,990;  -14,797;2821,48715
 721,00; 2723,836;  -24,680;   -9,755;2748,51577
 722,00; 2690,398;  -24,229;  -11,823;2714,62758
 723,00; 2623,080;  -22,861;  -13,859;2645,94188
 724,00; 2542,083;  -24,009;  -18,501;2566,09259
 725,00; 2450,014;  -29,670;  -17,443;2479,68410
 726,00; 2354,949;  -36,839;  -13,043;2391,78827
 727,00; 2302,927;  -38,245;   -7,594;2341,17189
 728,00; 2232,033;  -45,005;   -7,010;2277,03789
 729,00; 2193,707;  -44,517;   -7,736;2238,22351
 730,00; 2126,673;  -42,972;  -17,779;2169,64527
 731,00; 2036,869;  -34,359;  -30,512;2071,22741
 732,00; 1977,130;  -35,089;  -30,460;2012,21864
 733,00; 1909,936;  -41,765;  -25,418;1951,70048
 734,00; 1892,960;  -45,957;  -15,842;1938,91715
 735,00; 1817,081;  -44,752;  -25,636;1861,83278
 736,00; 1798,049;  -34,897;  -28,059;1832,94618
 737,00; 1720,908;  -32,036;  -28,894;1752,94387
 738,00; 1688,342;  -38,562;  -18,245;1726,90477
 739,00; 1604,503;  -44,433;  -18,619;1648,93618
 740,00; 1578,454;  -37,431;  -15,326;1615,88531
 741,00; 1522,456;  -35,053;  -17,602;1557,50914
 742,00; 1483,384;  -34,545;  -20,256;1517,92810
 743,00; 1426,680;  -36,357;  -31,345;1463,03707
 744,00; 1378,014;  -34,507;  -35,678;1412,52124
 745,00; 1315,615;  -29,092;  -33,849;1344,70697
 746,00; 1268,240;  -33,055;  -26,163;1301,29500
 747,00; 1239,724;  -28,442;  -15,209;1268,16562
 748,00; 1228,207;  -33,899;  -18,357;1262,10611
 749,00; 1200,647;  -32,202;  -29,261;1232,84972
 750,00; 1174,265;  -38,248;  -34,650;1212,51250
 751,00; 1137,025;  -39,853;  -36,412;1176,87855
 752,00; 1075,980;  -43,805;  -30,722;1119,78488
 753,00; 1020,955;  -52,130;  -28,430;1073,08501
 754,00;  965,705;  -51,673;  -29,125;1017,37846
 755,00;  934,764;  -46,020;  -40,409;980,78395
 756,00;  913,047;  -31,506;  -44,617;944,55295
 757,00;  907,732;  -30,460;  -45,353;938,19195
 758,00;  882,472;  -31,333;  -33,360;913,80486
 759,00;  843,413;  -30,317;  -42,295;873,73042
 760,00;  792,789;  -27,102;  -35,164;819,89106
 761,00;  775,196;  -26,305;  -38,726;801,50083
 762,00;  745,989;  -31,769;  -27,150;777,75798
 763,00;  712,563;  -41,917;  -41,356;754,47967
 764,00;  688,537;  -51,631;  -28,754;740,16883
 765,00;  668,273;  -50,635;  -27,689;718,90819
 766,00;  632,053;  -43,088;  -18,511;675,14177
 767,00;  589,715;  -37,607;  -36,802;627,32227
 768,00;  572,700;  -34,750;  -42,967;607,45082
 769,00;  555,753;  -37,775;  -42,528;593,52823
 770,00;  541,065;  -34,767;  -38,955;575,83232
 771,00;  525,157;  -35,061;  -33,452;560,21738
 772,00;  512,086;  -28,576;  -35,488;540,66261
 773,00;  508,635;  -34,602;  -25,554;543,23689
 774,00;  480,454;  -37,285;  -30,428;517,73914
 775,00;  448,748;  -41,375;  -38,845;490,12294
 776,00;  401,441;  -39,415;  -55,502;440,85623
 777,00;  407,512;  -37,762;  -52,756;445,27389
 778,00;  399,653;  -34,549;  -41,862;434,20175
 779,00;  388,938;  -38,065;  -29,433;427,00358
 780,00;  366,271;  -30,790;  -38,707;397,06137
 781,00;  364,009;  -28,569;  -40,414;392,57828
 782,00;  364,506;  -27,902;  -35,871;392,40828
 783,00;  355,255;  -40,386;  -26,862;395,64125
 784,00;  336,621;  -40,333;  -23,109;376,95404
 785,00;  338,186;  -36,792;  -19,014;374,97784
 786,00;  337,064;  -37,675;  -16,818;374,73814
 787,00;  315,904;  -42,589;  -23,491;358,49258
 788,00;  301,117;  -42,513;  -34,177;343,63022
 789,00;  271,641;  -32,643;  -40,033;304,28424
 790,00;  238,448;  -29,379;  -50,804;267,82702
 791,00;  216,353;  -34,805;  -51,095;251,15732
 792,00;  205,101;  -42,329;  -56,101;247,43011
 793,00;  242,677;  -47,852;  -37,277;290,52969
 794,00;  264,346;  -48,535;  -25,122;312,88140
 795,00;  273,859;  -43,208;  -20,057;317,06773
 796,00;  232,857;  -36,161;  -32,521;269,01837
 797,00;  210,407;  -37,461;  -45,048;247,86811
 798,00;  190,848;  -43,153;  -49,643;234,00139
 799,00;  187,827;  -38,679;  -44,070;226,50580
 800,00;  174,085;  -32,015;  -41,351;206,09971
 801,00;  168,076;  -33,985;  -39,488;202,06059
 802,00;  177,553;  -36,549;  -42,899;214,10283
 803,00;  162,380;  -31,003;  -39,527;193,38346
 804,00;  185,091;  -26,311;  -41,136;211,40188
 805,00;  188,064;  -32,520;  -42,006;220,58387
 806,00;  191,654;  -43,061;  -48,619;234,71497
 807,00;  160,135;  -44,699;  -51,221;204,83445
 808,00;  137,200;  -38,048;  -54,914;175,24870
 809,00;  127,657;  -35,588;  -47,523;163,24560
 810,00;  118,708;  -38,101;  -53,072;156,80946
 811,00;  105,114;  -36,827;  -54,167;141,94070
 812,00;  113,538;  -33,644;  -47,810;147,18196
 813,00;   93,870;  -38,099;  -39,542;131,96919
 814,00;  123,857;  -46,542;  -31,201;170,39890
 815,00;   97,588;  -45,868;  -36,269;143,45617
 816,00;  101,067;  -42,787;  -43,129;143,85352
 817,00;   73,049;  -38,174;  -50,056;111,22275
 818,00;   79,254;  -42,181;  -54,206;121,43572
 819,00;   77,592;  -45,391;  -47,892;122,98289
 820,00;   91,366;  -41,538;  -37,156;132,90382
 821,00;  100,458;  -33,950;  -33,842;134,40738
 822,00;   74,897;  -31,558;  -37,103;106,45523
 823,00;   57,445;  -39,921;  -41,174;97,36533
 824,00;   50,575;  -42,837;  -45,355;93,41188
 825,00;   48,224;  -43,791;  -48,681;92,01525
 826,00;   46,255;  -38,770;  -52,771;85,02556
 827,00;   35,976;  -39,694;  -53,321;75,66969
 828,00;   68,208;  -46,435;  -48,675;114,64332
 829,00;   78,945;  -49,649;  -48,487;128,59351
 830,00;   81,133;  -43,210;  -43,543;124,34305
 831,00;   41,869;  -34,258;  -51,258;76,12708
 832,00;   25,015;  -39,891;  -58,613;64,90578
 833,00;   29,882;  -49,502;  -53,814;79,38403
 834,00;   35,165;  -50,023;  -47,918;85,18851
 835,00;   26,464;  -42,080;  -46,343;68,54371
 836,00;   19,823;  -34,383;  -44,466;54,20611
 837,00;   15,701;  -36,045;  -46,528;51,74671
 838,00;   30,356;  -38,992;  -47,712;69,34742
 839,00;   24,483;  -36,326;  -50,402;60,80920
 840,00;   29,282;  -29,675;  -49,680;58,95726
 841,00;    6,224;  -25,021;  -53,580;31,24469
 842,00;   20,187;  -28,532;  -54,143;48,71952
 843,00;   21,960;  -38,110;  -47,892;60,07034
 844,00;   31,712;  -45,734;  -49,117;77,44611
 845,00;    4,295;  -43,217;  -57,157;47,51151
 846,00;   -8,572;  -30,061;  -61,720;21,48904
 847,00;  -11,844;  -23,769;  -52,155;11,92418
 848,00;  -20,075;  -22,506;  -48,090; 2,43146
 849,00;  -24,702;  -28,514;  -41,559; 3,81211
 850,00;  -23,227;  -30,182;  -46,577; 6,95514

