wavelength,mLemon (basic) ab,mLemon (basic) ex,mLemon (basic) em
350,0.0402,0.0067,
351,0.0383,0.0064,
352,0.0345,0.0061,
353,0.0353,0.0061,
354,0.0368,0.0059,
355,0.0336,0.0058,
356,0.036,0.0056,
357,0.0358,0.0054,
358,0.0333,0.0051,
359,0.0353,0.0051,
360,0.0344,0.0049,
361,0.0297,0.0046,
362,0.028,0.0046,
363,0.0268,0.0044,
364,0.027,0.0043,
365,0.0263,0.0041,
366,0.0256,0.004,
367,0.0236,0.0039,
368,0.0241,0.0037,
369,0.0234,0.0036,
370,0.025,0.0033,
371,0.0244,0.0034,
372,0.0214,0.0029,
373,0.019,0.0029,
374,0.0217,0.0029,
375,0.0214,0.0027,
376,0.018,0.0024,
377,0.021,0.0023,
378,0.018,0.002,
379,0.0209,0.0021,
380,0.0173,0.002,
381,0.0202,0.0019,
382,0.0206,0.0019,
383,0.0189,0.0018,
384,0.0183,0.0018,
385,0.0172,0.0017,
386,0.0178,0.0015,
387,0.0204,0.0016,
388,0.0178,0.0015,
389,0.0199,0.0015,
390,0.0175,0.0015,
391,0.0175,0.0014,
392,0.0178,0.0014,
393,0.017,0.0014,
394,0.0183,0.0015,
395,0.018,0.0014,
396,0.0223,0.0017,
397,0.0134,0.0017,
398,0.0141,0.0018,
399,0.0149,0.0016,
400,0.0165,0.0019,
401,0.0172,0.0021,
402,0.0166,0.0021,
403,0.0154,0.0021,
404,0.0192,0.0024,
405,0.0189,0.0024,
406,0.0178,0.0026,
407,0.018,0.0029,
408,0.019,0.003,
409,0.0171,0.0033,
410,0.017,0.0033,
411,0.018,0.0038,
412,0.0207,0.004,
413,0.018,0.0043,
414,0.0169,0.0045,
415,0.0171,0.0052,
416,0.0204,0.0053,
417,0.0187,0.0056,
418,0.0198,0.0059,
419,0.0204,0.0066,
420,0.0227,0.0068,
421,0.0212,0.0073,
422,0.023,0.0077,
423,0.0219,0.0082,
424,0.0214,0.0087,
425,0.0261,0.0095,
426,0.0231,0.0101,
427,0.0259,0.0108,
428,0.0241,0.0114,
429,0.0241,0.0124,
430,0.0239,0.0135,
431,0.0261,0.0144,
432,0.027,0.0158,
433,0.0268,0.0165,
434,0.0285,0.0179,
435,0.0311,0.0195,
436,0.03,0.021,
437,0.0324,0.0228,
438,0.036,0.0253,
439,0.0361,0.0271,
440,0.0358,0.0283,
441,0.0378,0.0314,
442,0.0427,0.0334,
443,0.0436,0.0367,
444,0.0468,0.039,
445,0.0479,0.0423,
446,0.0524,0.0448,
447,0.0577,0.0479,
448,0.0594,0.051,
449,0.0633,0.0551,
450,0.0643,0.0591,
451,0.0673,0.0631,
452,0.0741,0.0668,
453,0.0739,0.0708,
454,0.0814,0.0763,
455,0.0816,0.0809,
456,0.0855,0.0855,
457,0.0906,0.0894,
458,0.0972,0.0928,
459,0.1011,0.0952,
460,0.1006,0.1,
461,0.1087,0.1051,
462,0.1096,0.1102,
463,0.1136,0.1168,
464,0.1206,0.1235,
465,0.1301,0.1309,
466,0.1392,0.1379,
467,0.1485,0.1449,
468,0.156,0.1528,
469,0.1643,0.162,
470,0.1738,0.1742,
471,0.1885,0.1843,
472,0.2014,0.1964,
473,0.2158,0.2095,
474,0.2286,0.2222,
475,0.2445,0.2358,
476,0.2638,0.2535,
477,0.2776,0.271,
478,0.2935,0.2883,
479,0.3074,0.3051,
480,0.3232,0.3198,
481,0.3357,0.3343,
482,0.3469,0.3394,
483,0.3547,0.3507,
484,0.3576,0.3532,
485,0.3627,0.3574,
486,0.3674,0.3672,
487,0.3732,0.3755,
488,0.3779,0.3826,
489,0.3823,0.3871,
490,0.3827,0.3881,0.004
491,0.3896,0.3911,0.0043
492,0.3923,0.397,0.0051
493,0.402,0.4026,0.0052
494,0.4106,0.4166,0.0065
495,0.4215,0.4242,0.0075
496,0.4395,0.4368,0.0087
497,0.4566,0.4504,0.0102
498,0.4717,0.4615,0.0121
499,0.4907,0.4769,0.0138
500,0.5125,0.5035,0.0175
501,0.5461,0.5266,0.0223
502,0.5778,0.5536,0.0277
503,0.6036,0.5845,0.033
504,0.6397,0.615,0.0419
505,0.6782,0.6552,0.054
506,0.7277,0.6898,0.067
507,0.7697,0.7321,0.0825
508,0.8133,0.7723,0.1041
509,0.8577,0.8219,0.1257
510,0.8966,0.86,0.1617
511,0.9386,0.8921,0.1956
512,0.9657,0.9245,0.238
513,0.9886,0.9625,0.2923
514,1.0,0.9848,0.3534
515,0.9996,1.0,0.4138
516,0.983,0.9928,0.4777
517,0.9566,0.9699,0.5493
518,0.9225,0.9416,0.6085
519,0.8766,0.9043,0.6971
520,0.8072,0.866,0.7585
521,0.7341,0.8138,0.8172
522,0.6601,0.7592,0.8708
523,0.5793,0.6899,0.9259
524,0.4937,0.6225,0.9557
525,0.4292,0.5321,0.9826
526,0.3706,0.4581,1.0
527,0.3296,0.3955,0.9982
528,0.2792,0.3453,0.9928
529,0.2421,0.2917,0.9799
530,0.2085,0.2549,0.9574
531,0.1775,0.2187,0.9275
532,0.1504,0.1881,0.8998
533,0.1219,0.1615,0.8729
534,0.098,0.1273,0.837
535,0.0829,0.1061,0.7998
536,0.069,0.0887,0.7557
537,0.0544,0.0694,0.7225
538,0.0426,0.0582,0.6868
539,0.0341,0.0476,0.6584
540,0.0331,0.0386,0.6193
541,0.0306,0.0304,0.5872
542,0.0225,0.0253,0.5656
543,0.0208,0.0207,0.5314
544,0.0183,0.0182,0.5052
545,0.016,0.0148,0.4875
546,0.0146,0.0122,0.468
547,0.0116,0.011,0.442
548,0.0122,0.0095,0.4195
549,0.0134,0.0074,0.4095
550,0.0109,0.0068,0.3925
551,,,0.3862
552,,,0.3711
553,,,0.3633
554,,,0.3537
555,,,0.3466
556,,,0.3367
557,,,0.3294
558,,,0.3235
559,,,0.3159
560,,,0.3082
561,,,0.3037
562,,,0.2992
563,,,0.295
564,,,0.2878
565,,,0.2788
566,,,0.2737
567,,,0.2682
568,,,0.2646
569,,,0.2539
570,,,0.2511
571,,,0.2398
572,,,0.2325
573,,,0.2266
574,,,0.2161
575,,,0.2118
576,,,0.2028
577,,,0.1924
578,,,0.1857
579,,,0.1795
580,,,0.171
581,,,0.1657
582,,,0.1594
583,,,0.1488
584,,,0.144
585,,,0.1378
586,,,0.1327
587,,,0.1264
588,,,0.1204
589,,,0.1143
590,,,0.1095
591,,,0.1072
592,,,0.0999
593,,,0.0972
594,,,0.0931
595,,,0.0894
596,,,0.0861
597,,,0.0838
598,,,0.0783
599,,,0.0753
600,,,0.0744
601,,,0.0714
602,,,0.0696
603,,,0.0674
604,,,0.0646
605,,,0.0615
606,,,0.0595
607,,,0.0573
608,,,0.0565
609,,,0.0553
610,,,0.0522
611,,,0.0505
612,,,0.0498
613,,,0.0484
614,,,0.046
615,,,0.0453
616,,,0.0424
617,,,0.0417
618,,,0.0409
619,,,0.0396
620,,,0.0385
621,,,0.0366
622,,,0.0375
623,,,0.0352
624,,,0.0339
625,,,0.033
626,,,0.0324
627,,,0.0306
628,,,0.0298
629,,,0.0291
630,,,0.027
631,,,0.027
632,,,0.0264
633,,,0.0254
634,,,0.0239
635,,,0.0237
636,,,0.0229
637,,,0.0214
638,,,0.0204
639,,,0.0202
640,,,0.0193
641,,,0.0186
642,,,0.0187
643,,,0.0181
644,,,0.0168
645,,,0.0168
646,,,0.0162
647,,,0.015
648,,,0.0138
649,,,0.0147
650,,,0.0133
